
Current (mA), Voltage (mV)
0 0
3.2 -80.96
9.6 -245.18
3.2 -80.96
3.4 -86.12
3.2 -80.96
23.8 565.96
27.4 633.08
31.0 700.2
34.6 757.32
38.2 864.44
41.8 931.56
45.0 1009.0
49.0 1065.8
86.0 1521.2
58.0 1153.6
62.0 1210.4
66.0 1267.2
70.0 1334.0
74.0 1390.8
78.0 1407.6
82.0 1464.4
86.0 1521.2
90.0 1578.0
94.0 1634.8
96.0 1743.2
100.0 1800.0
104.0 1856.8
108.0 1913.6
112.0 1970.4
118.0 1935.6
120.0 2054.0
124.0 2110.8
128.0 2167.6
132.0 2224.4
136.0 2281.2
140.0 2338.0
144.0 2354.8
148.0 2411.6
152.0 2468.4
154.0 2576.8
160.0 2542.0
242.0 3356.4
172.0 2662.4
176.0 2659.2
180.0 2756.0
184.0 2852.8
188.0 2849.6
192.0 2946.4
196.0 2943.2
202.0 2888.4
206.0 2985.2
210.0 2982.0
214.0 3078.8
218.0 3175.6
222.0 3172.4
226.0 3269.2
230.0 3266.0
234.0 3262.8
238.0 3359.6
242.0 3356.4
246.0 3453.2
250.0 3550.0
254.0 3546.8
258.0 3643.6
262.0 3740.4
266.0 3737.2
270.0 3834.0
274.0 3830.8
278.0 3727.6
282.0 3924.4
286.0 3921.2
290.0 3918.0
294.0 4114.8
298.0 4011.6
306.0 4005.2
306.0 4205.2
310.0 4202.0
314.0 4298.8
318.0 4295.6
322.0 4292.4
326.0 4389.2
330.0 4386.0
334.0 4382.8
338.0 4579.6
342.0 4576.4
346.0 4473.2
350.0 4570.0
350.0 4770.0
358.0 4763.6
362.0 4860.4
366.0 4757.2
370.0 4854.0
374.0 4950.8
378.0 4947.6
382.0 4944.4
386.0 5041.2
390.0 5038.0
394.0 5134.8
398.0 5131.6
402.0 5128.4
406.0 5225.2
410.0 5222.0
414.0 5318.8
418.0 5315.6
422.0 5312.4
426.0 5409.2
430.0 5406.0
430.0 5606.0
438.0 5399.6
442.0 5496.4
446.0 5593.2
446.0 5793.2
454.0 5586.8
454.0 5786.8
458.0 5883.6
466.0 5877.2
474.0 5670.8
474.0 5870.8
482.0 5864.4
482.0 5864.4
490.0 5858.0
490.0 6058.0
498.0 6051.6
498.0 6051.6
506.0 6045.2
514.0 6038.8
514.0 6238.8
522.0 6032.4
522.0 6232.4
530.0 6226.0
530.0 6226.0
530.0 6426.0
538.0 6419.6
546.0 6413.2
900.0 9380.0
560.0 6652.0
560.0 6852.0
580.0 6536.0
580.0 6536.0
580.0 6736.0
580.0 6936.0
600.0 6620.0
600.0 6620.0
600.0 6820.0
600.0 7020.0
620.0 6704.0
620.0 6704.0
620.0 6904.0
620.0 7104.0
620.0 7304.0
620.0 7504.0
620.0 7504.0
620.0 7704.0
640.0 7388.0
640.0 7588.0
640.0 7588.0
660.0 7272.0
660.0 7472.0
660.0 7672.0
660.0 7872.0
680.0 7356.0
680.0 7556.0
680.0 7756.0
680.0 7756.0
700.0 7440.0
700.0 7640.0
700.0 7640.0
700.0 7840.0
700.0 8040.0
700.0 8240.0
700.0 8240.0
720.0 7924.0
720.0 8124.0
720.0 8324.0
720.0 8524.0
720.0 8524.0
740.0 8208.0
740.0 8408.0
740.0 8608.0
760.0 8092.0
760.0 8292.0
760.0 8492.0
760.0 8692.0
780.0 8176.0
780.0 8376.0
780.0 8576.0
780.0 8776.0
780.0 8776.0
780.0 8976.0
780.0 9176.0
780.0 9376.0
780.0 9376.0
800.0 9060.0
800.0 9260.0
800.0 9560.0
820.0 9044.0
820.0 9244.0
820.0 9444.0
