
Current (mA), Voltage (mV)
0 0
3.2 -126.76
3.2 -128.96
3.4 -134.92
3.4 -136.22
3.0 -112.5
3.2 -128.06
3.2 -125.96
3.0 -120.8
3.4 -134.12
3.0 -119.7
6.0 -240.9
3.0 -120.1
3.4 -137.12
3.4 -137.12
3.0 -120.8
10.4 -422.72
3.0 -118.0
3.2 -128.16
3.0 -113.5
3.2 -125.46
3.0 -120.8
3.0 -118.4
3.2 -128.96
3.2 -128.96
3.4 -135.62
3.0 -117.4
3.2 -128.06
3.4 -136.92
3.2 -128.96
3.2 -128.96
3.0 -118.6
3.0 -116.6
3.0 -120.8
14.0 738.8
14.4 782.48
15.2 769.84
16.0 777.2
16.8 784.56
17.6 771.92
18.0 795.6
19.2 786.64
19.6 790.32
20.6 789.52
21.4 776.88
22.2 784.24
23.0 791.6
23.4 795.28
24.2 802.64
25.0 810.0
25.8 797.36
26.2 821.04
27.4 792.08
27.8 815.76
28.6 823.12
29.4 810.48
30.6 801.52
30.6 821.52
31.4 828.88
32.2 816.24
33.0 823.6
34.2 814.64
34.2 834.64
35.0 842.0
36.2 833.04
36.6 836.72
37.0 860.4
38.2 831.44
38.6 855.12
39.4 842.48
40.2 849.84
41.0 857.2
45.4 857.68
45.8 881.36
46.6 868.72
47.4 876.08
48.2 863.44
49.0 870.8
49.4 874.48
50.2 881.84
51.0 889.2
51.8 876.56
52.6 893.92
53.4 881.28
53.8 904.96
54.6 892.32
55.4 899.68
56.2 887.04
57.0 894.4
57.4 898.08
58.6 889.12
59.0 932.8
59.8 940.16
60.8 939.36
61.6 906.72
62.0 930.4
62.8 937.76
63.2 961.44
64.4 952.48
64.8 976.16
66.0 927.2
66.8 934.56
67.2 958.24
67.6 981.92
68.4 989.28
70.0 924.0
70.8 931.36
70.8 971.36
71.6 978.72
72.4 986.08
74.0 920.8
74.0 960.8
74.8 968.16
75.6 975.52
76.4 982.88
77.2 950.24
78.0 957.6
78.8 964.96
79.6 972.32
80.4 979.68
80.4 979.68
82.0 954.4
82.8 961.76
82.8 1001.76
83.6 1009.12
85.2 983.84
86.0 951.2
86.0 991.2
87.6 965.92
87.6 1005.92
88.4 1013.28
89.2 980.64
90.0 988.0
90.8 995.36
91.6 1002.72
92.4 1010.08
92.4 1010.08
94.0 984.8
94.0 1024.8
95.6 999.52
96.4 1006.88
96.4 1006.88
97.2 1014.24
98.0 1031.6
98.8 1038.96
100.6 965.52
100.6 1005.52
101.4 1012.88
102.2 1020.24
103.0 987.6
103.8 994.96
103.8 1034.96
104.6 1042.32
105.4 1049.68
107.0 1024.4
107.0 1024.4
107.8 1031.76
108.6 1039.12
109.4 1046.48
110.2 1053.84
111.0 1021.2
111.8 1028.56
111.8 1068.56
112.6 1075.92
114.2 1010.64
114.2 1050.64
115.8 1025.36
115.8 1065.36
116.6 1032.72
117.4 1040.08
118.2 1047.44
119.0 1054.8
119.0 1054.8
119.8 1062.16
120.6 1069.52
121.4 1076.88
122.2 1044.24
123.0 1051.6
123.8 1058.96
124.6 1066.32
125.4 1073.68
126.2 1041.04
126.2 1081.04
127.0 1088.4
127.8 1095.76
128.6 1103.12
129.4 1070.48
130.2 1077.84
131.0 1085.2
131.0 1085.2
131.8 1092.56
132.6 1099.92
133.4 1107.28
134.2 1074.64
135.0 1082.0
135.8 1089.36
135.8 1159.36
138.0 969.6
